TRANSMISSION%TAU_TOTAL = (
  0.138409E-006  0.183091E-007  0.117864E-005  0.210071E-005  0.842597E-002  0.640841E-002  0.285420E-001  0.484269       0.223268       0.483783     
  0.146081E-011  0.220234E-019  0.212854E-011  0.898783E-001  0.166462       0.319381E-001  0.356286E-002  0.787721E-005  0.355786E-005  0.809940     
  0.839794       0.102990E-006  0.564655E-008  0.440058E-006  0.164761E-005  0.452862E-002  0.352206E-002  0.231549E-001  0.496148       0.158586     
  0.477332       0.168870E-007  0.180978E-021  0.869581E-012  0.795784E-001  0.127406       0.176932E-001  0.121104E-002  0.120602E-005  0.263596E-005
  0.781276       0.829053       0.142525E-005  0.762803E-007  0.364561E-005  0.850335E-005  0.218743E-001  0.156915E-001  0.128122       0.811015     
  0.221895       0.791877       0.902087E-007  0.171958E-015  0.552067E-004  0.460168       0.146066       0.164465E-001  0.131126E-002  0.101133E-005
  0.205243E-005  0.796572       0.894639       0.112580E-006  0.232242E-008  0.275201E-006  0.202670E-005  0.399239E-002  0.309780E-002  0.297290E-001
  0.571570       0.150442       0.540432       0.799748E-007  0.182182E-021  0.414532E-010  0.110695       0.110412       0.121459E-001  0.601261E-003
  0.174769E-006  0.198944E-005  0.768653       0.844334       0.305779E-005  0.899997E-006  0.286404E-004  0.108339E-003  0.118987       0.846143E-001
  0.347175       0.943958       0.356824       0.934326       0.149748E-002  0.225591E-004  0.563318E-001  0.821599       0.270221       0.596366E-001
  0.126006E-001  0.178343E-004  0.675090E-005  0.883592       0.961509       0.235875E-006  0.144807E-009  0.690049E-007  0.338418E-005  0.182445E-002
  0.154786E-002  0.276708E-001  0.645836       0.160012       0.574859       0.500821E-008  0.182751E-021  0.202987E-009  0.128284       0.743371E-001
  0.370165E-002  0.903957E-004  0.905313E-008  0.656573E-006  0.739695       0.854338     
 )
TRANSMISSION%TAU_LAYERS = (
   1.00000        1.00000        1.00000        1.00000        1.00000        1.00000        1.00000        1.00000        1.00000        1.00000     
   1.00000        1.00000        1.00000        1.00000        1.00000        1.00000        1.00000        1.00000        1.00000        1.00000     
   1.00000        1.00000        1.00000        1.00000        1.00000        1.00000        1.00000        1.00000        1.00000        1.00000     
   1.00000        1.00000        1.00000        1.00000        1.00000        1.00000        1.00000        1.00000        1.00000        1.00000     
   1.00000        1.00000        1.00000        1.00000        1.00000        1.00000        1.00000        1.00000        1.00000        1.00000     
   1.00000        1.00000        1.00000        1.00000        1.00000        1.00000        1.00000        1.00000        1.00000        1.00000     
   1.00000        1.00000        1.00000        1.00000        1.00000        1.00000        1.00000        1.00000        1.00000        1.00000     
   1.00000        1.00000        1.00000        1.00000        1.00000        1.00000        1.00000        1.00000        1.00000        1.00000     
   1.00000        1.00000        1.00000        1.00000        1.00000        1.00000        1.00000        1.00000        1.00000        1.00000     
   1.00000        1.00000        1.00000        1.00000        1.00000        1.00000        1.00000        1.00000        1.00000        1.00000     
   1.00000        1.00000        1.00000        1.00000        1.00000        1.00000        1.00000        1.00000        1.00000        1.00000     
   1.00000        1.00000        1.00000        1.00000        1.00000        1.00000        1.00000        1.00000        1.00000        1.00000     
   1.00000        1.00000        1.00000        1.00000        1.00000        1.00000     
 
  0.969021       0.996935       0.999871       0.999932       0.999996       0.999965       0.999995        1.00000       0.999970        1.00000     
   1.00000        1.00000        1.00000        1.00000       0.999753       0.999997       0.999992       0.999800       0.998113        1.00000     
   1.00000       0.973232       0.997280       0.999899       0.999950       0.999997       0.999973       0.999996        1.00000       0.999971     
   1.00000        1.00000        1.00000        1.00000        1.00000       0.999907       0.999999       0.999995       0.999810       0.998427     
   1.00000        1.00000       0.969065       0.997173       0.999828       0.999894       0.999994       0.999952       0.999990        1.00000     
  0.999977        1.00000        1.00000        1.00000        1.00000        1.00000       0.999664       0.999994       0.999986       0.999826     
  0.997862        1.00000        1.00000       0.976726       0.997638       0.999913       0.999957       0.999997       0.999976       0.999997     
   1.00000       0.999970        1.00000        1.00000        1.00000        1.00000        1.00000       0.999892       0.999999       0.999996     
  0.999825       0.998644        1.00000        1.00000       0.973289       0.997572       0.999840       0.999900       0.999994       0.999959     
  0.999990        1.00000       0.999984        1.00000        1.00000        1.00000        1.00000        1.00000       0.999770       0.999995     
  0.999986       0.999877       0.998034        1.00000        1.00000       0.972865       0.997525       0.999853       0.999909       0.999995     
  0.999956       0.999992        1.00000       0.999972        1.00000        1.00000        1.00000        1.00000        1.00000       0.999785     
  0.999997       0.999989       0.999822       0.998220        1.00000        1.00000     
 
  0.946410       0.995300       0.999623       0.999745       0.999985       0.999877       0.999977        1.00000       0.999930        1.00000     
  0.999999       0.999999        1.00000        1.00000       0.999725       0.999993       0.999966       0.999606       0.996188        1.00000     
   1.00000       0.954804       0.995814       0.999739       0.999833       0.999990       0.999915       0.999986        1.00000       0.999940     
   1.00000       0.999999        1.00000        1.00000        1.00000       0.999887       0.999998       0.999980       0.999654       0.997076     
   1.00000        1.00000       0.949597       0.995630       0.999621       0.999740       0.999984       0.999888       0.999974        1.00000     
  0.999954        1.00000       0.999999        1.00000        1.00000        1.00000       0.999402       0.999988       0.999962       0.999683     
  0.996093        1.00000        1.00000       0.962820       0.996354       0.999829       0.999902       0.999994       0.999948       0.999992     
   1.00000       0.999947        1.00000        1.00000        1.00000        1.00000        1.00000       0.999846       0.999998       0.999989     
  0.999713       0.997742        1.00000        1.00000       0.956809       0.996150       0.999704       0.999805       0.999988       0.999922     
  0.999980        1.00000       0.999971        1.00000        1.00000        1.00000        1.00000        1.00000       0.999609       0.999991     
  0.999972       0.999787       0.996650        1.00000        1.00000       0.955272       0.995948       0.999732       0.999828       0.999990     
  0.999918       0.999985        1.00000       0.999951        1.00000       0.999999        1.00000        1.00000        1.00000       0.999651     
  0.999994       0.999978       0.999699       0.996948        1.00000        1.00000     
 
  0.920476       0.993467       0.999103       0.999332       0.999955       0.999712       0.999930        1.00000       0.999848        1.00000     
  0.999998       0.999998       0.999999        1.00000       0.999725       0.999989       0.999895       0.999359       0.992736       0.999999     
   1.00000       0.934102       0.994355       0.999409       0.999576       0.999972       0.999803       0.999959        1.00000       0.999878     
   1.00000       0.999998       0.999999        1.00000        1.00000       0.999887       0.999995       0.999940       0.999465       0.994787     
   1.00000        1.00000       0.929534       0.994288       0.999278       0.999466       0.999965       0.999780       0.999943        1.00000     
  0.999916        1.00000       0.999998       0.999999        1.00000        1.00000       0.999101       0.999979       0.999917       0.999496     
  0.993731        1.00000        1.00000       0.945238       0.995110       0.999639       0.999754       0.999984       0.999874       0.999980     
   1.00000       0.999909        1.00000       0.999999       0.999999        1.00000        1.00000       0.999838       0.999997       0.999970     
  0.999554       0.996381        1.00000        1.00000       0.935826       0.994812       0.999360       0.999533       0.999969       0.999819     
  0.999949        1.00000       0.999938        1.00000       0.999999       0.999999        1.00000        1.00000       0.999323       0.999982     
  0.999928       0.999605       0.994175        1.00000        1.00000       0.934244       0.994499       0.999403       0.999571       0.999973     
  0.999807       0.999958        1.00000       0.999903        1.00000       0.999999       0.999999        1.00000        1.00000       0.999553     
  0.999989       0.999938       0.999506       0.994676        1.00000        1.00000     
 
  0.893102       0.991361       0.998307       0.998637       0.999891       0.999484       0.999834        1.00000       0.999654        1.00000     
  0.999995       0.999996       0.999999        1.00000       0.999725       0.999983       0.999743       0.999000       0.988325       0.999999     
   1.00000       0.908761       0.992487       0.998823       0.999100       0.999934       0.999623       0.999901        1.00000       0.999746     
   1.00000       0.999997       0.999998       0.999999        1.00000       0.999887       0.999992       0.999850       0.999200       0.991074     
  0.999999        1.00000       0.904697       0.992512       0.998612       0.998903       0.999919       0.999584       0.999871        1.00000     
  0.999817        1.00000       0.999997       0.999998       0.999999        1.00000       0.998907       0.999966       0.999807       0.999213     
  0.989826       0.999999        1.00000       0.921051       0.993352       0.999146       0.999370       0.999957       0.999715       0.999937     
   1.00000       0.999809        1.00000       0.999998       0.999998       0.999999        1.00000       0.999838       0.999994       0.999906     
  0.999326       0.993045       0.999999        1.00000       0.918723       0.993647       0.998926       0.999162       0.999938       0.999695     
  0.999901        1.00000       0.999876        1.00000       0.999998       0.999999        1.00000        1.00000       0.999115       0.999973     
  0.999859       0.999425       0.991588        1.00000        1.00000       0.919382       0.993419       0.999055       0.999288       0.999951     
  0.999698       0.999924        1.00000       0.999838        1.00000       0.999998       0.999998       0.999999        1.00000       0.999530     
  0.999986       0.999885       0.999338       0.992545       0.999999        1.00000     
 
  0.863112       0.988793       0.997293       0.997628       0.999772       0.999217       0.999672        1.00000       0.999245        1.00000     
  0.999990       0.999993       0.999997       0.999999       0.999725       0.999975       0.999462       0.998467       0.983600       0.999999     
   1.00000       0.880955       0.990267       0.997927       0.998302       0.999855       0.999377       0.999785        1.00000       0.999468     
   1.00000       0.999994       0.999996       0.999998        1.00000       0.999887       0.999987       0.999665       0.998792       0.986302     
  0.999999        1.00000       0.882328       0.990725       0.997826       0.998145       0.999840       0.999367       0.999758        1.00000     
  0.999605        1.00000       0.999994       0.999997       0.999999        1.00000       0.998825       0.999953       0.999620       0.998838     
  0.986184       0.999999        1.00000       0.900031       0.991723       0.998558       0.998870       0.999911       0.999546       0.999869     
   1.00000       0.999648        1.00000       0.999996       0.999997       0.999999        1.00000       0.999838       0.999990       0.999799     
  0.999056       0.989653       0.999999        1.00000       0.902266       0.992473       0.998448       0.998733       0.999898       0.999560     
  0.999843        1.00000       0.999788        1.00000       0.999997       0.999998       0.999999        1.00000       0.998912       0.999962     
  0.999772       0.999226       0.988992        1.00000        1.00000       0.899009       0.991879       0.998488       0.998817       0.999912     
  0.999528       0.999863        1.00000       0.999722        1.00000       0.999996       0.999997       0.999999        1.00000       0.999530     
  0.999980       0.999790       0.999079       0.989237       0.999999        1.00000     
 
  0.827661       0.985467       0.996079       0.996302       0.999578       0.998922       0.999443        1.00000       0.998491       0.999999     
  0.999983       0.999989       0.999995       0.999999       0.999712       0.999961       0.999003       0.997709       0.978480       0.999998     
   1.00000       0.847439       0.987284       0.996740       0.997055       0.999693       0.999077       0.999575        1.00000       0.998876     
   1.00000       0.999988       0.999993       0.999997       0.999999       0.999887       0.999979       0.999289       0.998124       0.981151     
  0.999998        1.00000       0.859053       0.988675       0.996989       0.997261       0.999727       0.999148       0.999612        1.00000     
  0.999230        1.00000       0.999990       0.999994       0.999998       0.999999       0.998746       0.999939       0.999353       0.998364     
  0.982654       0.999999        1.00000       0.875672       0.989718       0.997754       0.998135       0.999833       0.999329       0.999757     
   1.00000       0.999375        1.00000       0.999993       0.999996       0.999998        1.00000       0.999838       0.999986       0.999617     
  0.998667       0.985496       0.999999        1.00000       0.882411       0.990922       0.997739       0.998026       0.999823       0.999362     
  0.999738        1.00000       0.999594        1.00000       0.999994       0.999997       0.999999        1.00000       0.998641       0.999946     
  0.999606       0.998901       0.985934       0.999999        1.00000       0.874288       0.989767       0.997617       0.997997       0.999823     
  0.999291       0.999736        1.00000       0.999398        1.00000       0.999992       0.999995       0.999998        1.00000       0.999530     
  0.999971       0.999574       0.998622       0.985065       0.999999        1.00000     
 
  0.784458       0.981107       0.994642       0.994720       0.999298       0.998599       0.999160        1.00000       0.997244       0.999999     
  0.999973       0.999984       0.999992       0.999997       0.999679       0.999939       0.998336       0.996704       0.972553       0.999997     
   1.00000       0.807710       0.983435       0.995344       0.995473       0.999437       0.998754       0.999294        1.00000       0.997861     
  0.999999       0.999979       0.999988       0.999995       0.999998       0.999887       0.999965       0.998684       0.997184       0.975531     
  0.999997        1.00000       0.830879       0.986001       0.995998       0.996164       0.999564       0.998904       0.999421        1.00000     
  0.998586       0.999999       0.999984       0.999992       0.999996       0.999999       0.998613       0.999922       0.998965       0.997728     
  0.978623       0.999998        1.00000       0.842599       0.986745       0.996571       0.996881       0.999670       0.999035       0.999544     
   1.00000       0.998805       0.999999       0.999987       0.999993       0.999997       0.999999       0.999838       0.999977       0.999229     
  0.997983       0.980391       0.999998        1.00000       0.860928       0.989035       0.996975       0.997190       0.999715       0.999157     
  0.999600        1.00000       0.999218        1.00000       0.999991       0.999995       0.999998       0.999999       0.998298       0.999927     
  0.999362       0.998473       0.982895       0.999999        1.00000       0.851135       0.987611       0.996808       0.997155       0.999709     
  0.999087       0.999590        1.00000       0.998929        1.00000       0.999988       0.999993       0.999997       0.999999       0.999508     
  0.999960       0.999297       0.998119       0.981509       0.999998        1.00000     
 
  0.731960       0.975488       0.992941       0.993006       0.998926       0.998244       0.998842        1.00000       0.995357       0.999998     
  0.999958       0.999977       0.999989       0.999995       0.999621       0.999907       0.997453       0.995450       0.965446       0.999995     
  0.999999       0.761449       0.978649       0.993747       0.993764       0.999102       0.998415       0.998986        1.00000       0.996418     
  0.999998       0.999968       0.999983       0.999992       0.999996       0.999887       0.999944       0.997875       0.996017       0.969148     
  0.999996        1.00000       0.795936       0.982468       0.994817       0.994852       0.999335       0.998632       0.999186        1.00000     
  0.997538       0.999999       0.999976       0.999988       0.999995       0.999998       0.998418       0.999900       0.998423       0.996895     
  0.973801       0.999997        1.00000       0.800881       0.982712       0.995042       0.995133       0.999383       0.998690       0.999235     
   1.00000       0.997806       0.999999       0.999978       0.999988       0.999995       0.999998       0.999838       0.999962       0.998535     
  0.996935       0.974405       0.999997        1.00000       0.838276       0.986901       0.996212       0.996335       0.999587       0.998963     
  0.999453        1.00000       0.998670       0.999999       0.999987       0.999993       0.999997       0.999999       0.997917       0.999907     
  0.999070       0.997993       0.979818       0.999998        1.00000       0.823419       0.984896       0.995847       0.996118       0.999549     
  0.998857       0.999406        1.00000       0.998234       0.999999       0.999982       0.999990       0.999996       0.999999       0.999453     
  0.999946       0.998910       0.997471       0.977419       0.999997        1.00000     
 
  0.669610       0.968482       0.990938       0.991289       0.998457       0.997848       0.998493       0.999999       0.992744       0.999996     
  0.999938       0.999968       0.999984       0.999991       0.999517       0.999858       0.996364       0.993967       0.956859       0.999994     
  0.999999       0.705625       0.972585       0.991839       0.992001       0.998672       0.998037       0.998645       0.999999       0.994382     
  0.999997       0.999952       0.999976       0.999988       0.999994       0.999873       0.999914       0.996837       0.994580       0.961429     
  0.999995       0.999999       0.751131       0.977665       0.993356       0.993325       0.999018       0.998318       0.998905        1.00000     
